Theta [deg.]  Phi   [deg.]  Abs(RCS )[dB(m^2)]   Abs(Theta)[dB(m^2)]  Phase(Theta)[deg.]  Abs(Phi  )[dB(m^2)]  Phase(Phi  )[deg.]  Ax.Ratio[dB    ]    
---------------------------------------------------------------------------------------------------------------------------------------------------------
   0.000          90.000           -1.371e-01          -1.371e-01             154.846          -1.399e+02             110.496           4.000e+01     
   1.000          90.000           -3.890e-02          -3.890e-02             154.304          -1.446e+02              90.192           4.000e+01     
   2.000          90.000           -6.618e-01          -6.618e-01             153.643          -1.486e+02              26.171           4.000e+01     
   3.000          90.000           -2.165e+00          -2.165e+00             152.917          -1.434e+02             333.628           4.000e+01     
   4.000          90.000           -5.015e+00          -5.015e+00             152.303          -1.392e+02             315.878           4.000e+01     
   5.000          90.000           -1.089e+01          -1.089e+01             152.813          -1.367e+02             305.546           4.000e+01     
   6.000          90.000           -2.861e+01          -2.861e+01             296.553          -1.353e+02             296.714           4.000e+01     
   7.000          90.000           -8.668e+00          -8.668e+00             322.651          -1.346e+02             287.376           4.000e+01     
   8.000          90.000           -3.086e+00          -3.086e+00             322.032          -1.345e+02             276.167           4.000e+01     
   9.000          90.000            4.669e-02           4.669e-02             320.259          -1.347e+02             261.724           4.000e+01     
  10.000          90.000            1.994e+00           1.994e+00             318.010          -1.349e+02             243.062           4.000e+01     
  11.000          90.000            3.151e+00           3.151e+00             315.436          -1.346e+02             221.219           4.000e+01     
  12.000          90.000            3.664e+00           3.664e+00             312.593          -1.336e+02             200.060           4.000e+01     
  13.000          90.000            3.558e+00           3.558e+00             309.522          -1.321e+02             182.817           4.000e+01     
  14.000          90.000            2.754e+00           2.754e+00             306.280          -1.307e+02             169.788           4.000e+01     
  15.000          90.000            1.004e+00           1.004e+00             302.996          -1.296e+02             159.907           4.000e+01     
  16.000          90.000           -2.409e+00          -2.409e+00             300.129          -1.289e+02             152.142           4.000e+01     
  17.000          90.000           -1.078e+01          -1.078e+01             301.567          -1.287e+02             145.814           4.000e+01     
  18.000          90.000           -1.103e+01          -1.103e+01              98.185          -1.291e+02             140.570           4.000e+01     
  19.000          90.000           -7.863e-01          -7.863e-01              99.927          -1.301e+02             136.386           4.000e+01     
  20.000          90.000            4.076e+00           4.076e+00              96.022          -1.321e+02             133.843           4.000e+01     
  21.000          90.000            7.274e+00           7.274e+00              91.094          -1.358e+02             135.766           4.000e+01     
  22.000          90.000            9.609e+00           9.609e+00              85.641          -1.430e+02             163.513           4.000e+01     
  23.000          90.000            1.139e+01           1.139e+01              79.797          -1.398e+02             249.677           4.000e+01     
  24.000          90.000            1.277e+01           1.277e+01              73.616          -1.328e+02             263.128           4.000e+01     
  25.000          90.000            1.384e+01           1.384e+01              67.124          -1.287e+02             262.204           4.000e+01     
  26.000          90.000            1.466e+01           1.466e+01              60.339          -1.259e+02             257.897           4.000e+01     
  27.000          90.000            1.526e+01           1.526e+01              53.275          -1.238e+02             252.178           4.000e+01     
  28.000          90.000            1.566e+01           1.566e+01              45.946          -1.221e+02             245.704           4.000e+01     
  29.000          90.000            1.589e+01           1.589e+01              38.369          -1.209e+02             238.804           4.000e+01     
  30.000          90.000            1.594e+01           1.594e+01              30.558          -1.199e+02             231.697           4.000e+01     
  31.000          90.000            1.584e+01           1.584e+01              22.530          -1.191e+02             224.549           4.000e+01     
  32.000          90.000            1.558e+01           1.558e+01              14.299          -1.185e+02             217.482           4.000e+01     
  33.000          90.000            1.515e+01           1.515e+01               5.875          -1.181e+02             210.578           4.000e+01     
  34.000          90.000            1.456e+01           1.456e+01             357.263          -1.179e+02             203.882           4.000e+01     
  35.000          90.000            1.378e+01           1.378e+01             348.457          -1.180e+02             197.410           4.000e+01     
  36.000          90.000            1.279e+01           1.279e+01             339.434          -1.182e+02             191.159           4.000e+01     
  37.000          90.000            1.157e+01           1.157e+01             330.156          -1.187e+02             185.125           4.000e+01     
  38.000          90.000            1.008e+01           1.008e+01             320.552          -1.194e+02             179.320           4.000e+01     
  39.000          90.000            8.253e+00           8.253e+00             310.513          -1.204e+02             173.819           4.000e+01     
  40.000          90.000            5.996e+00           5.996e+00             299.847          -1.216e+02             168.816           4.000e+01     
  41.000          90.000            3.132e+00           3.132e+00             288.184          -1.230e+02             164.721           4.000e+01     
  42.000          90.000           -7.076e-01          -7.076e-01             274.582          -1.246e+02             162.308           4.000e+01     
  43.000          90.000           -6.518e+00          -6.518e+00             255.274          -1.262e+02             162.822           4.000e+01     
  44.000          90.000           -1.664e+01          -1.664e+01             192.312          -1.275e+02             167.671           4.000e+01     
  45.000          90.000           -1.011e+01          -1.011e+01              94.625          -1.281e+02             176.846           4.000e+01     
  46.000          90.000           -4.841e+00          -4.841e+00              70.079          -1.277e+02             187.148           4.000e+01     
  47.000          90.000           -2.051e+00          -2.051e+00              53.565          -1.264e+02             194.807           4.000e+01     
  48.000          90.000           -3.523e-01          -3.523e-01              38.948          -1.250e+02             199.029           4.000e+01     
  49.000          90.000            7.203e-01           7.203e-01              25.122          -1.236e+02             200.891           4.000e+01     
  50.000          90.000            1.357e+00           1.357e+00              11.770          -1.225e+02             201.577           4.000e+01     
  51.000          90.000            1.639e+00           1.639e+00             358.726          -1.217e+02             201.931           4.000e+01     
  52.000          90.000            1.600e+00           1.600e+00             345.809          -1.213e+02             202.528           4.000e+01     
  53.000          90.000            1.250e+00           1.250e+00             332.765          -1.212e+02             203.835           4.000e+01     
  54.000          90.000            5.968e-01           5.968e-01             319.243          -1.215e+02             206.315           4.000e+01     
  55.000          90.000           -3.433e-01          -3.433e-01             304.794          -1.221e+02             210.534           4.000e+01     
  56.000          90.000           -1.527e+00          -1.527e+00             288.906          -1.230e+02             217.200           4.000e+01     
  57.000          90.000           -2.866e+00          -2.866e+00             271.151          -1.240e+02             227.052           4.000e+01     
  58.000          90.000           -4.233e+00          -4.233e+00             251.489          -1.249e+02             240.297           4.000e+01     
  59.000          90.000           -5.526e+00          -5.526e+00             230.575          -1.254e+02             255.672           4.000e+01     
  60.000          90.000           -6.781e+00          -6.781e+00             209.494          -1.254e+02             270.604           4.000e+01     
  61.000          90.000           -8.229e+00          -8.229e+00             188.738          -1.253e+02             283.201           4.000e+01     
  62.000          90.000           -1.023e+01          -1.023e+01             167.072          -1.252e+02             293.340           4.000e+01     
  63.000          90.000           -1.312e+01          -1.312e+01             139.595          -1.256e+02             302.010           4.000e+01     
  64.000          90.000           -1.601e+01          -1.601e+01              93.866          -1.266e+02             310.737           4.000e+01     
  65.000          90.000           -1.454e+01          -1.454e+01              38.268          -1.283e+02             321.924           4.000e+01     
  66.000          90.000           -1.096e+01          -1.096e+01               5.803          -1.306e+02             340.403           4.000e+01     
  67.000          90.000           -8.310e+00          -8.310e+00             346.783          -1.325e+02              13.527           4.000e+01     
  68.000          90.000           -6.688e+00          -6.688e+00             332.543          -1.312e+02              50.967           4.000e+01     
  69.000          90.000           -5.886e+00          -5.886e+00             319.715          -1.283e+02              72.968           4.000e+01     
  70.000          90.000           -5.754e+00          -5.754e+00             306.412          -1.260e+02              83.944           4.000e+01     
  71.000          90.000           -6.137e+00          -6.137e+00             290.973          -1.244e+02              89.836           4.000e+01     
  72.000          90.000           -6.757e+00          -6.757e+00             271.718          -1.235e+02              93.219           4.000e+01     
  73.000          90.000           -7.088e+00          -7.088e+00             248.239          -1.232e+02              95.191           4.000e+01     
  74.000          90.000           -6.636e+00          -6.636e+00             223.669          -1.235e+02              96.257           4.000e+01     
  75.000          90.000           -5.555e+00          -5.555e+00             202.710          -1.244e+02              96.629           4.000e+01     
  76.000          90.000           -4.412e+00          -4.412e+00             186.831          -1.261e+02              96.300           4.000e+01     
  77.000          90.000           -3.604e+00          -3.604e+00             174.894          -1.291e+02              94.860           4.000e+01     
  78.000          90.000           -3.303e+00          -3.303e+00             165.391          -1.344e+02              90.058           4.000e+01     
  79.000          90.000           -3.604e+00          -3.604e+00             157.061          -1.482e+02              36.666           4.000e+01     
  80.000          90.000           -4.610e+00          -4.610e+00             148.662          -1.363e+02             293.392           4.000e+01     
  81.000          90.000           -6.490e+00          -6.490e+00             138.281          -1.305e+02             286.540           4.000e+01     
  82.000          90.000           -9.451e+00          -9.451e+00             121.281          -1.276e+02             284.130           4.000e+01     
  83.000          90.000           -1.270e+01          -1.270e+01              85.524          -1.260e+02             282.666           4.000e+01     
  84.000          90.000           -1.170e+01          -1.170e+01              36.594          -1.253e+02             281.448           4.000e+01     
  85.000          90.000           -8.226e+00          -8.226e+00              10.799          -1.253e+02             280.182           4.000e+01     
  86.000          90.000           -5.679e+00          -5.679e+00             359.635          -1.260e+02             278.628           4.000e+01     
  87.000          90.000           -4.193e+00          -4.193e+00             354.271          -1.275e+02             276.405           4.000e+01     
  88.000          90.000           -3.593e+00          -3.593e+00             351.844          -1.301e+02             272.579           4.000e+01     
  89.000          90.000           -3.811e+00          -3.811e+00             351.468          -1.347e+02             263.482           4.000e+01     
  90.000          90.000           -4.908e+00          -4.908e+00             353.167          -1.435e+02             216.423           4.000e+01     
  91.000          90.000           -7.131e+00          -7.131e+00             358.079          -1.376e+02             128.458           4.000e+01     
  92.000          90.000           -1.108e+01          -1.108e+01              11.095          -1.318e+02             113.307           4.000e+01     
  93.000          90.000           -1.651e+01          -1.651e+01              57.243          -1.287e+02             107.622           4.000e+01     
  94.000          90.000           -1.298e+01          -1.298e+01             123.239          -1.269e+02             103.993           4.000e+01     
  95.000          90.000           -8.138e+00          -8.138e+00             144.625          -1.260e+02             100.910           4.000e+01     
  96.000          90.000           -5.314e+00          -5.314e+00             154.623          -1.259e+02              97.783           4.000e+01     
  97.000          90.000           -3.757e+00          -3.757e+00             162.225          -1.264e+02              94.181           4.000e+01     
  98.000          90.000           -3.097e+00          -3.097e+00             169.917          -1.277e+02              89.510           4.000e+01     
  99.000          90.000           -3.156e+00          -3.156e+00             179.113          -1.301e+02              82.388           4.000e+01     
 100.000          90.000           -3.804e+00          -3.804e+00             191.309          -1.342e+02              67.802           4.000e+01     
 101.000          90.000           -4.812e+00          -4.812e+00             208.431          -1.401e+02              17.734           4.000e+01     
 102.000          90.000           -5.629e+00          -5.629e+00             231.828          -1.358e+02             307.806           4.000e+01     
 103.000          90.000           -5.526e+00          -5.526e+00             258.776          -1.306e+02             287.017           4.000e+01     
 104.000          90.000           -4.522e+00          -4.522e+00             283.036          -1.274e+02             277.446           4.000e+01     
 105.000          90.000           -3.335e+00          -3.335e+00             302.260          -1.254e+02             270.762           4.000e+01     
 106.000          90.000           -2.457e+00          -2.457e+00             318.105          -1.242e+02             265.017           4.000e+01     
 107.000          90.000           -2.032e+00          -2.032e+00             332.801          -1.237e+02             259.474           4.000e+01     
 108.000          90.000           -2.028e+00          -2.028e+00             348.189          -1.238e+02             253.673           4.000e+01     
 109.000          90.000           -2.289e+00          -2.289e+00               5.690          -1.244e+02             247.090           4.000e+01     
 110.000          90.000           -2.540e+00          -2.540e+00              25.903          -1.259e+02             238.737           4.000e+01     
 111.000          90.000           -2.483e+00          -2.483e+00              47.805          -1.284e+02             226.060           4.000e+01     
 112.000          90.000           -2.065e+00          -2.065e+00              69.046          -1.320e+02             200.636           4.000e+01     
 113.000          90.000           -1.538e+00          -1.538e+00              88.051          -1.338e+02             147.039           4.000e+01     
 114.000          90.000           -1.209e+00          -1.209e+00             105.047          -1.300e+02             104.673           4.000e+01     
 115.000          90.000           -1.268e+00          -1.268e+00             121.411          -1.264e+02              86.284           4.000e+01     
 116.000          90.000           -1.752e+00          -1.752e+00             139.030          -1.241e+02              76.207           4.000e+01     
 117.000          90.000           -2.498e+00          -2.498e+00             160.031          -1.227e+02              69.177           4.000e+01     
 118.000          90.000           -3.028e+00          -3.028e+00             185.498          -1.221e+02              63.398           4.000e+01     
 119.000          90.000           -2.794e+00          -2.794e+00             212.743          -1.224e+02              57.946           4.000e+01     
 120.000          90.000           -1.926e+00          -1.926e+00             236.766          -1.234e+02              51.939           4.000e+01     
 121.000          90.000           -1.079e+00          -1.079e+00             256.021          -1.257e+02              43.671           4.000e+01     
 122.000          90.000           -7.398e-01          -7.398e-01             272.269          -1.296e+02              27.409           4.000e+01     
 123.000          90.000           -1.141e+00          -1.141e+00             288.305          -1.344e+02             337.664           4.000e+01     
 124.000          90.000           -2.343e+00          -2.343e+00             307.967          -1.307e+02             277.686           4.000e+01     
 125.000          90.000           -3.865e+00          -3.865e+00             337.230          -1.263e+02             258.932           4.000e+01     
 126.000          90.000           -3.772e+00          -3.772e+00              16.723          -1.238e+02             252.169           4.000e+01     
 127.000          90.000           -1.445e+00          -1.445e+00              49.328          -1.227e+02             249.980           4.000e+01     
 128.000          90.000            1.001e+00           1.001e+00              69.496          -1.228e+02             251.388           4.000e+01     
 129.000          90.000            2.638e+00           2.638e+00              83.025          -1.241e+02             258.290           4.000e+01     
